PLASMA GEOMETRY
Vacuum Toroidal magnetic field at R=1.69550m [Tesla] 
	2.00381
Geometric Center Major radius [m]
	1.64345
Minor radius [m]
	0.627452
Avg. Elongation
	1.49557
Avg. Top/Bottom Triangularity
	0.0528165
Main Contaminant Species
	12C
Main Ion Species mass/proton mass
    2.0
TRYING TO GET TO BETA(0)=0.0156858 , Rmax=1.72239
            
Rho(norml. sqrt. toroid. flux), q, Beam Ion Density(10^20 m^-3), Ion Density(10^20 m^-3), Elec Density(10^20 cm^-3), Impurity Density(10^20 m^-3), Beam Ion Effective Temp(keV), Ion Temp(keV), Electron Temp(keV), Beam Pressure(kPa), Thermal Pressure(kPa), Equil.Pressure(kPa), Tor Rot(km/s), Pol Rot(km/s)  
0 3.44474 0.019451 0.249076 0.327852 0.00988761 23.9274 1.99954 1.68946 7.4503 17.037 24.6061 65.9853 0  
0.01 3.44431 0.0194421 0.249248 0.327842 0.0098586 23.9274 1.99865 1.68879 7.44689 17.0345 24.5998 65.8561 0  
0.02 3.44302 0.019421 0.249728 0.327811 0.00977701 23.9231 1.99599 1.6868 7.43748 17.0261 24.5808 65.4891 0  
0.03 3.44089 0.0193865 0.250467 0.327759 0.00965106 23.9188 1.99164 1.68353 7.42294 17.0108 24.5492 64.9145 0  
0.04 3.43792 0.0193367 0.251416 0.327687 0.00948894 23.9198 1.98565 1.67903 7.40419 16.9876 24.5049 64.1629 0  
0.05 3.43414 0.0192792 0.25252 0.327592 0.00929885 23.9208 1.97807 1.67334 7.38245 16.9552 24.4481 63.2647 0  
0.06 3.42961 0.0192245 0.253718 0.327477 0.00908899 23.9126 1.96898 1.66649 7.35901 16.9122 24.3787 62.2503 0  
0.07 3.42442 0.0191675 0.254966 0.327339 0.00886755 23.9045 1.95841 1.65853 7.33469 16.8577 24.2967 61.1502 0  
0.08 3.41872 0.0191329 0.25619 0.327179 0.00864274 23.871 1.94644 1.6495 7.31122 16.79 24.2023 59.9949 0  
0.09 3.41274 0.0191013 0.25736 0.326998 0.00842275 23.8376 1.93312 1.63943 7.28893 16.7087 24.0954 58.8147 0  
0.1 3.40642 0.0191019 0.258405 0.326793 0.00821437 23.7729 1.91851 1.62837 7.26936 16.6121 23.9762 57.6397 0  
0.11 3.39924 0.0191067 0.259347 0.326566 0.00801871 23.7081 1.90267 1.61636 7.25137 16.5016 23.8446 56.4857 0  
0.12 3.39028 0.0191396 0.260164 0.326316 0.00783541 23.6147 1.88565 1.60344 7.23522 16.3768 23.7008 55.3533 0  
0.13 3.37877 0.0191742 0.260884 0.326043 0.00766414 23.5213 1.86751 1.58965 7.21963 16.2392 23.5448 54.2423 0  
0.14 3.3654 0.0192303 0.261489 0.325747 0.00750456 23.4039 1.84832 1.57503 7.20463 16.0887 23.3767 53.1523 0  
0.15 3.35137 0.0192855 0.262003 0.325427 0.00735633 23.2865 1.82813 1.55962 7.18907 15.9267 23.1965 52.0832 0  
0.16 3.3372 0.0193458 0.262422 0.325083 0.0072191 23.1608 1.807 1.54346 7.17263 15.7534 23.0044 51.0346 0  
0.17 3.32249 0.0194023 0.262757 0.324715 0.00709255 23.0351 1.78498 1.5266 7.15452 15.5699 22.8005 50.0064 0  
0.18 3.30712 0.0194457 0.263018 0.324322 0.00697633 22.9179 1.76214 1.50906 7.13405 15.3769 22.5848 48.9984 0  
0.19 3.29137 0.0194824 0.263202 0.323905 0.0068701 22.8007 1.73853 1.4909 7.11097 15.1749 22.3576 48.0102 0  
0.2 3.2753 0.019501 0.263321 0.323464 0.00677352 22.6943 1.71421 1.47215 7.08453 14.9647 22.119 47.0417 0  
0.21 3.25861 0.0195102 0.263369 0.322997 0.00668625 22.5879 1.68924 1.45286 7.05466 14.7469 21.8694 46.0925 0  
0.22 3.24128 0.0195027 0.263355 0.322505 0.00660795 22.4878 1.66369 1.43306 7.02066 14.522 21.6088 45.1626 0  
0.23 3.2235 0.0194831 0.263275 0.321988 0.00653828 22.3876 1.63759 1.41279 6.98239 14.2908 21.3375 44.2515 0  
0.24 3.20551 0.0194519 0.263131 0.321444 0.00647691 22.2858 1.61102 1.3921 6.93949 14.0536 21.0558 43.3591 0  
0.25 3.18733 0.0194064 0.262928 0.320875 0.00642348 22.1839 1.58403 1.37103 6.89159 13.8113 20.764 42.4851 0  
0.26 3.16896 0.0193554 0.262659 0.32028 0.00637767 22.0715 1.55669 1.34961 6.83866 13.5641 20.4624 41.6293 0  
0.27 3.15057 0.0192883 0.262336 0.319659 0.00633914 21.959 1.52904 1.32789 6.78023 13.313 20.1515 40.7914 0  
0.28 3.1322 0.019221 0.261945 0.319011 0.00630753 21.8288 1.50115 1.30591 6.71649 13.0583 19.8316 39.9712 0  
0.29 3.11397 0.0191359 0.261505 0.318336 0.00628252 21.6985 1.47307 1.28371 6.64688 12.8007 19.5032 39.1685 0  
0.3 3.09626 0.0190462 0.261005 0.317634 0.00626376 21.5539 1.44487 1.26133 6.5716 12.5408 19.1668 38.383 0  
0.31 3.07876 0.0189377 0.260461 0.316905 0.00625091 21.4092 1.4166 1.2388 6.49031 12.2794 18.823 37.6144 0  
0.32 3.06196 0.0188153 0.259871 0.316148 0.00624364 21.2591 1.38832 1.21618 6.40314 12.017 18.4722 36.8626 0  
0.33 3.04596 0.0186736 0.25924 0.315363 0.0062416 21.1089 1.36008 1.19349 6.31003 11.7543 18.1153 36.1273 0  
0.34 3.03065 0.0185135 0.25857 0.314551 0.00624446 20.9578 1.33196 1.17079 6.21114 11.4917 17.7528 35.4082 0  
0.35 3.01636 0.0183342 0.257864 0.31371 0.00625187 20.8066 1.30399 1.14811 6.10663 11.2299 17.3855 34.7051 0  
0.36 3.00311 0.0181362 0.257123 0.312841 0.00626349 20.6553 1.27625 1.12549 5.99674 10.9694 17.0142 34.0177 0  
0.37 2.99094 0.0179197 0.256349 0.311943 0.00627899 20.5039 1.2488 1.10297 5.88174 10.7108 16.6396 33.3459 0  
0.38 2.98009 0.0176848 0.255543 0.311016 0.00629803 20.3531 1.22168 1.08059 5.76193 10.4545 16.2626 32.6894 0  
0.39 2.97051 0.0174326 0.254706 0.31006 0.00632026 20.2023 1.19495 1.0584 5.63767 10.2011 15.8841 32.0479 0  
0.4 2.96233 0.0171624 0.253841 0.309075 0.00634535 20.0535 1.16869 1.03641 5.50942 9.9509 15.5049 31.4211 0  
0.41 2.95572 0.016878 0.252944 0.30806 0.00637295 19.9047 1.14293 1.01461 5.37789 9.7042 15.1259 30.8089 0  
0.42 2.95061 0.0165776 0.252021 0.307015 0.00640273 19.7591 1.11775 0.993008 5.24356 9.46132 14.7479 30.2111 0  
0.43 2.9472 0.0162662 0.251069 0.305941 0.00643434 19.6134 1.0932 0.971604 5.10712 9.22247 14.3718 29.6272 0  
0.44 2.94553 0.0159408 0.25009 0.304836 0.00646746 19.4729 1.06934 0.950394 4.96912 8.98795 13.9986 29.0572 0  
0.45 2.94563 0.0156081 0.249082 0.3037 0.00650173 19.3324 1.04619 0.92938 4.8303 8.75782 13.629 28.5008 0  
0.46 2.94765 0.015266 0.248047 0.302534 0.00653681 19.1978 1.02373 0.908559 4.69153 8.53203 13.2638 27.9577 0  
0.47 2.95157 0.0149224 0.246981 0.301337 0.00657237 19.0631 1.00193 0.887932 4.55375 8.31034 12.9037 27.4277 0  
0.48 2.95752 0.014575 0.245885 0.300109 0.00660808 18.9344 0.980736 0.867497 4.4177 8.0927 12.5493 26.9105 0  
0.49 2.96556 0.0142314 0.244757 0.298849 0.00664357 18.8056 0.960126 0.847254 4.28422 7.87887 12.2014 26.4059 0  
0.5 2.97567 0.0138924 0.243594 0.297558 0.00667853 18.6786 0.940063 0.827203 4.15391 7.66873 11.8604 25.9137 0  
0.51 2.98804 0.0135614 0.242398 0.296235 0.00671261 18.5515 0.92051 0.807342 4.02737 7.46216 11.5267 25.4337 0  
0.52 3.00263 0.0132446 0.241162 0.294879 0.00674546 18.4185 0.901433 0.787671 3.90507 7.25895 11.2006 24.9655 0  
0.53 3.01949 0.0129385 0.239893 0.293492 0.00677676 18.2855 0.882796 0.768189 3.78728 7.05906 10.8823 24.5089 0  
0.54 3.03872 0.0126493 0.238585 0.292072 0.00680615 18.1453 0.864565 0.748896 3.67426 6.8623 10.5719 24.0637 0  
0.55 3.06033 0.0123723 0.237246 0.290619 0.0068333 18.0051 0.846703 0.72979 3.56601 6.66865 10.2694 23.6297 0  
0.56 3.08433 0.0121031 0.235882 0.289132 0.00685788 17.8708 0.829177 0.710872 3.46241 6.47806 9.97463 23.2066 0  
0.57 3.11083 0.0118457 0.23449 0.287613 0.00687953 17.7365 0.81195 0.692141 3.3633 6.29038 9.68724 22.7942 0  
0.58 3.13978 0.0115856 0.233087 0.28606 0.00689792 17.6218 0.794987 0.673595 3.26818 6.1057 9.40683 22.3922 0  
0.59 3.17124 0.0113352 0.231662 0.284474 0.00691271 17.5072 0.778254 0.655234 3.17675 5.92376 9.13283 22.0003 0  
0.6 3.20522 0.0110753 0.230237 0.282854 0.00692357 17.4186 0.761714 0.637058 3.0882 5.74468 8.86457 21.6184 0  
0.61 3.24169 0.0108213 0.228797 0.281199 0.00693014 17.33 0.745333 0.619066 3.00203 5.56817 8.60123 21.2462 0  
0.62 3.28068 0.0105484 0.227369 0.27951 0.0069321 17.2754 0.729075 0.601257 2.91709 5.39443 8.34189 20.8835 0  
0.63 3.32214 0.0102758 0.225936 0.277786 0.0069291 17.2207 0.712906 0.58363 2.83272 5.22311 8.08551 20.5299 0  
0.64 3.36603 0.00997827 0.224525 0.276028 0.0069208 17.2013 0.696789 0.566185 2.7476 5.05439 7.83096 20.1854 0  
0.65 3.41233 0.00967438 0.223119 0.274234 0.00690686 17.1819 0.680691 0.548921 2.66091 4.88796 7.57712 19.8495 0  
0.66 3.46098 0.00935169 0.221732 0.272406 0.00688694 17.1782 0.664574 0.531838 2.57161 4.72384 7.32295 19.5222 0  
0.67 3.51195 0.00901695 0.22036 0.270541 0.00686071 17.1745 0.648405 0.514934 2.47903 4.56184 7.0676 19.203 0  
0.68 3.56522 0.00867284 0.219001 0.268641 0.00682781 17.1618 0.632149 0.49821 2.38265 4.40184 6.81042 18.892 0  
0.69 3.6208 0.00831282 0.217665 0.266705 0.00678793 17.149 0.615769 0.481664 2.28205 4.24379 6.55095 18.5886 0  
0.7 3.67864 0.00794387 0.216344 0.264733 0.0067407 17.1206 0.59923 0.465295 2.17715 4.08752 6.28894 18.2927 0  
0.71 3.73876 0.00755787 0.215051 0.262724 0.0066858 17.0923 0.582498 0.449104 2.06793 3.933 6.02433 18.0042 0  
0.72 3.80119 0.00715811 0.213783 0.260678 0.00662288 17.0585 0.565538 0.433089 1.95468 3.78011 5.75729 17.7226 0  
0.73 3.86587 0.00674353 0.212542 0.258596 0.00655161 17.0247 0.548313 0.41725 1.83782 3.62874 5.48814 17.4479 0  
0.74 3.93285 0.00631614 0.21133 0.256476 0.00647164 16.992 0.530789 0.401586 1.71804 3.47877 5.21745 17.1797 0  
0.75 4.00216 0.00587928 0.210144 0.254319 0.00638263 16.9593 0.512938 0.386096 1.59614 3.33011 4.94592 16.9178 0  
0.76 4.07377 0.0054299 0.208989 0.252125 0.00628427 16.9445 0.494801 0.37078 1.47285 3.18292 4.67445 16.6619 0  
0.77 4.14769 0.00497782 0.207855 0.249892 0.00617655 16.9297 0.476447 0.355636 1.34904 3.03738 4.4041 16.4119 0 
0.78 4.22396 0.00451519 0.206748 0.247622 0.00605985 16.9572 0.457947 0.340663 1.22565 2.89374 4.13607 16.1675 0  
0.79 4.30255 0.00406031 0.205646 0.245313 0.00593456 16.9848 0.439371 0.325853 1.10397 2.75209 3.87172 15.9283 0  
0.8 4.38348 0.0036007 0.204559 0.242966 0.00580107 17.0912 0.42079 0.311198 0.985136 2.61269 3.61249 15.6943 0  
0.81 4.46671 0.00316294 0.203458 0.24058 0.00565978 17.1976 0.402274 0.296692 0.870751 2.47558 3.36001 15.4651 0  
0.82 4.55237 0.00273573 0.202353 0.238155 0.00551107 17.4036 0.383895 0.282327 0.762168 2.34103 3.11591 15.2406 0  
0.83 4.64059 0.00234518 0.201214 0.235691 0.00535533 17.6097 0.365723 0.268095 0.661098 2.20909 2.88196 15.0203 0  
0.84 4.73149 0.00198266 0.200047 0.233187 0.00519295 17.9236 0.347827 0.253989 0.568868 2.08003 2.65975 14.8043 0  
0.85 4.82535 0.00166633 0.198832 0.230644 0.00502433 18.2375 0.33028 0.240001 0.48648 1.95396 2.45041 14.592 0  
0.86 4.92228 0.0013877 0.197574 0.228061 0.00484985 18.6494 0.313151 0.226125 0.414281 1.83115 2.25455 14.3835 0  
0.87 5.02233 0.00115423 0.196264 0.225437 0.00466991 19.0612 0.296511 0.212353 0.352193 1.71176 2.07227 14.1783 0  
0.88 5.12578 9.56068E-4 0.194908 0.222774 0.00448489 19.5777 0.280431 0.198677 0.299632 1.59606 1.90325 13.9763 0  
0.89 5.23264 7.94889E-4 0.193503 0.220069 0.00429518 20.0943 0.26498 0.18509 0.255692 1.48423 1.74676 13.7771 0  
0.9 5.343 6.6111E-4 0.191994 0.217262 0.00410118 20.732 0.250231 0.171584 0.219407 1.37609 1.60166 13.5807 0  
0.91 5.45693 5.56422E-4 0.190174 0.214151 0.00390328 21.3696 0.236252 0.158153 0.190343 1.27061 1.4665 13.3867 0  
0.92 5.57443 4.71977E-4 0.187831 0.210514 0.00370186 22.1726 0.223116 0.144788 0.167523 1.16705 1.33953 13.1948 0  
0.93 5.69567 4.06213E-4 0.184742 0.206132 0.00349732 22.9755 0.210888 0.131483 0.149402 1.06491 1.21874 13.0049 0  
0.94 5.82092 3.48815E-4 0.180694 0.200783 0.00329005 24.0297 0.199547 0.118229 0.134177 0.963771 1.10189 12.8167 0  
0.95 5.95048 2.9859E-4 0.175466 0.194247 0.00308044 25.0838 0.188971 0.10502 0.119897 0.863175 0.986569 12.6299 0  
0.96 6.08401 2.45571E-4 0.168844 0.186303 0.00286887 26.5032 0.179031 0.0918484 0.104187 0.762956 0.870228 12.4444 0  
0.97 6.21999 1.88474E-4 0.160608 0.176731 0.00265574 27.9226 0.169601 0.078706 0.084245 0.663217 0.750168 12.2598 0  
0.98 6.35711 1.22198E-4 0.150538 0.165308 0.00244144 29.0723 0.160553 0.0655859 0.0568697 0.564378 0.623603 12.076 0  
0.99 6.49917 5.34331E-5 0.138404 0.151816 0.00222636 30.2219 0.15176 0.0524807 0.0258505 0.467157 0.487657 11.8926 0  
1 6.65336 0 0.124117 0.136182 0.00201089 30.2219 0.143094 0.0393829 0 0.373041 0.339661 11.7095 0  